# Object name: IRAS_07069-1045
# Instrument: FIFI-LS
# z: 0.00005500
# Ref. Wav.: 118.58100000
# Area aperture: 0.00000 degs
"wavelength","flux","eflux","uflux","exposure","atran"
1.182029e+02        nan 0.000000e+00 0.000000e+00 6.144000e+01 9.375452e-01
1.182177e+02        nan 0.000000e+00 0.000000e+00 6.144000e+01 9.350714e-01
1.182324e+02        nan 0.000000e+00 8.802572e-01 2.150400e+02 9.321246e-01
1.182472e+02 6.242132e-01 9.868198e-02 5.799710e-01 2.150400e+02 9.289193e-01
1.182619e+02 4.750452e-01 8.540687e-02 4.398889e-01 2.457600e+02 9.257978e-01
1.182767e+02 3.881111e-01 7.680475e-02 3.543811e-01 2.457600e+02 9.231461e-01
1.182914e+02 3.103746e-01 6.958496e-02 2.950335e-01 3.993600e+02 9.212635e-01
1.183062e+02 3.441626e-01 6.425482e-02 3.440085e-01 3.993600e+02 9.202379e-01
1.183209e+02 4.931985e-01 5.957883e-02 4.840816e-01 4.608000e+02 9.199022e-01
1.183357e+02 5.615260e-01 5.580077e-02 5.334985e-01 6.144000e+02 9.199080e-01
1.183504e+02 4.576831e-01 5.274629e-02 4.161554e-01 6.144000e+02 9.198944e-01
1.183652e+02 3.796084e-01 5.021052e-02 3.533932e-01 6.758400e+02 9.196669e-01
1.183799e+02 4.326331e-01 4.825486e-02 4.225554e-01 6.758400e+02 9.192898e-01
1.183947e+02 4.970496e-01 4.679995e-02 4.703189e-01 6.758400e+02 9.190409e-01
1.184094e+02 4.097821e-01 4.564688e-02 3.751261e-01 6.758400e+02 9.192566e-01
1.184242e+02 3.092963e-01 4.489452e-02 2.925060e-01 6.758400e+02 9.201525e-01
1.184389e+02 3.634552e-01 4.411975e-02 3.550854e-01 6.758400e+02 9.217150e-01
1.184537e+02 4.828980e-01 4.360035e-02 4.758912e-01 6.758400e+02 9.237070e-01
1.184684e+02 5.471849e-01 4.303561e-02 5.228584e-01 6.758400e+02 9.257663e-01
1.184832e+02 5.564030e-01 4.261793e-02 5.346786e-01 6.758400e+02 9.275193e-01
1.184979e+02 5.847730e-01 4.210415e-02 5.639839e-01 6.758400e+02 9.286326e-01
1.185127e+02 6.232891e-01 4.185130e-02 5.956589e-01 6.758400e+02 9.287766e-01
1.185274e+02 5.557182e-01 4.141336e-02 5.162993e-01 6.758400e+02 9.275254e-01
1.185422e+02 4.430708e-01 4.117265e-02 4.134171e-01 6.758400e+02 9.242792e-01
1.185569e+02 3.748312e-01 4.105085e-02 3.552812e-01 6.758400e+02 9.183210e-01
1.185717e+02 3.925860e-01 4.116363e-02 3.765313e-01 6.758400e+02 9.090588e-01
1.185864e+02 4.459027e-01 4.162355e-02 4.130627e-01 6.758400e+02 8.964269e-01
1.186012e+02 4.462896e-01 4.220592e-02 4.026678e-01 6.758400e+02 8.813002e-01
1.186159e+02 4.427661e-01 4.294583e-02 4.064189e-01 6.758400e+02 8.656484e-01
1.186307e+02 5.092904e-01 4.363423e-02 4.588450e-01 6.758400e+02 8.522187e-01
1.186454e+02 5.694591e-01 4.402000e-02 4.935834e-01 6.758400e+02 8.437356e-01
1.186602e+02 5.150767e-01 4.439831e-02 4.437728e-01 6.758400e+02 8.418671e-01
1.186749e+02 5.135868e-01 4.423642e-02 4.544413e-01 6.758400e+02 8.464715e-01
1.186897e+02 6.365544e-01 4.412953e-02 5.733298e-01 6.758400e+02 8.554930e-01
1.187044e+02 7.547115e-01 4.408877e-02 6.741467e-01 6.758400e+02 8.656301e-01
1.187192e+02 7.205492e-01 4.407497e-02 6.395639e-01 6.758400e+02 8.735366e-01
1.187339e+02 6.021385e-01 4.445088e-02 5.406479e-01 6.758400e+02 8.770138e-01
1.187487e+02 6.081027e-01 4.491580e-02 5.536296e-01 6.758400e+02 8.757619e-01
1.187634e+02 6.193657e-01 4.556363e-02 5.557515e-01 6.758400e+02 8.713829e-01
1.187782e+02 5.208615e-01 4.641899e-02 4.515531e-01 6.758400e+02 8.666961e-01
1.187929e+02 3.683409e-01 4.753346e-02 3.131656e-01 6.758400e+02 8.646390e-01
1.188077e+02 2.603402e-01 4.884502e-02 2.183383e-01 6.758400e+02 8.671947e-01
1.188224e+02 1.979964e-01 5.048712e-02 1.772750e-01 6.144000e+02 8.747751e-01
1.188372e+02 2.092879e-01 5.237795e-02 1.903246e-01 6.144000e+02 8.862484e-01
1.188519e+02 2.223149e-01 5.466993e-02 2.048724e-01 4.608000e+02 8.995420e-01
1.188667e+02 2.171681e-01 5.731222e-02 2.122146e-01 4.608000e+02 9.124584e-01
1.188814e+02 2.685799e-01 6.074590e-02 2.703590e-01 4.300800e+02 9.233305e-01
1.188962e+02 3.422788e-01 6.482970e-02 3.300992e-01 4.300800e+02 9.312886e-01
1.189109e+02 3.290957e-01 7.054073e-02 2.934086e-01 2.764800e+02 9.361384e-01
1.189257e+02 3.701665e-02 7.809404e-02 -1.082234e-02 2.764800e+02 9.380481e-01
1.189404e+02 -2.934334e-01 9.007834e-02 -3.102465e-01 2.150400e+02 9.372339e-01
1.189552e+02 -4.303752e-01 1.083544e-01 0.000000e+00 2.150400e+02 9.338203e-01
1.189699e+02        nan 0.000000e+00 0.000000e+00 6.144000e+01 9.279263e-01
