# Object name: IRAS_07069-1045
# Instrument: FIFI-LS
# z: 0.00005500
# Ref. Wav.: 118.58100000
# Area aperture: 0.00000 degs
"wavelength","flux","eflux","uflux","exposure","atran"
1.182029e+02        nan 0.000000e+00 0.000000e+00 9.216000e+01 9.375452e-01
1.182177e+02        nan 0.000000e+00 0.000000e+00 9.216000e+01 9.350714e-01
1.182324e+02 1.138347e+00 1.077941e-01 1.096405e+00 2.764800e+02 9.321246e-01
1.182472e+02 1.081921e+00 8.753792e-02 1.021629e+00 2.764800e+02 9.289193e-01
1.182619e+02 9.544751e-01 7.617041e-02 9.005887e-01 3.379200e+02 9.257978e-01
1.182767e+02 8.040306e-01 6.844670e-02 7.376779e-01 3.379200e+02 9.231461e-01
1.182914e+02 6.652181e-01 6.183322e-02 6.401489e-01 5.222400e+02 9.212635e-01
1.183062e+02 6.766311e-01 5.749620e-02 6.474602e-01 5.222400e+02 9.202379e-01
1.183209e+02 7.933691e-01 5.289800e-02 7.675262e-01 6.144000e+02 9.199022e-01
1.183357e+02 8.684628e-01 4.989570e-02 8.263769e-01 7.987200e+02 9.199080e-01
1.183504e+02 8.070557e-01 4.701555e-02 7.562128e-01 7.987200e+02 9.198944e-01
1.183652e+02 7.305207e-01 4.471794e-02 6.903014e-01 8.908800e+02 9.196669e-01
1.183799e+02 7.927999e-01 4.303393e-02 7.667081e-01 8.908800e+02 9.192898e-01
1.183947e+02 8.888990e-01 4.161126e-02 8.494570e-01 8.908800e+02 9.190409e-01
1.184094e+02 8.361990e-01 4.066536e-02 7.789029e-01 8.908800e+02 9.192566e-01
1.184242e+02 7.081466e-01 3.985255e-02 6.661910e-01 8.908800e+02 9.201525e-01
1.184389e+02 6.868441e-01 3.930624e-02 6.637201e-01 8.908800e+02 9.217150e-01
1.184537e+02 7.914610e-01 3.871668e-02 7.704636e-01 8.908800e+02 9.237070e-01
1.184684e+02 8.754802e-01 3.826738e-02 8.410446e-01 8.908800e+02 9.257663e-01
1.184832e+02 9.106301e-01 3.783698e-02 8.726855e-01 8.908800e+02 9.275193e-01
1.184979e+02 9.397644e-01 3.742524e-02 9.085017e-01 8.908800e+02 9.286326e-01
1.185127e+02 9.295488e-01 3.715227e-02 8.840095e-01 8.908800e+02 9.287766e-01
1.185274e+02 8.341055e-01 3.680495e-02 7.797397e-01 8.908800e+02 9.275254e-01
1.185422e+02 7.292290e-01 3.663139e-02 6.887762e-01 8.908800e+02 9.242792e-01
1.185569e+02 7.163112e-01 3.646458e-02 6.846384e-01 8.908800e+02 9.183210e-01
1.185717e+02 7.287125e-01 3.663526e-02 6.892467e-01 8.908800e+02 9.090588e-01
1.185864e+02 7.142989e-01 3.697552e-02 6.550406e-01 8.908800e+02 8.964269e-01
1.186012e+02 6.849798e-01 3.749945e-02 6.265335e-01 8.908800e+02 8.813002e-01
1.186159e+02 7.447878e-01 3.819115e-02 6.843008e-01 8.908800e+02 8.656484e-01
1.186307e+02 8.952481e-01 3.873463e-02 8.059006e-01 8.908800e+02 8.522187e-01
1.186454e+02 9.229578e-01 3.918668e-02 7.982532e-01 8.908800e+02 8.437356e-01
1.186602e+02 8.112111e-01 3.947269e-02 6.952130e-01 8.908800e+02 8.418671e-01
1.186749e+02 8.008198e-01 3.932639e-02 7.069402e-01 8.908800e+02 8.464715e-01
1.186897e+02 9.508338e-01 3.924336e-02 8.585373e-01 8.908800e+02 8.554930e-01
1.187044e+02 1.093498e+00 3.918984e-02 9.865792e-01 8.908800e+02 8.656301e-01
1.187192e+02 1.086716e+00 3.921134e-02 9.634979e-01 8.908800e+02 8.735366e-01
1.187339e+02 1.000406e+00 3.949820e-02 8.970000e-01 8.908800e+02 8.770138e-01
1.187487e+02 9.905790e-01 3.991310e-02 8.969241e-01 8.908800e+02 8.757619e-01
1.187634e+02 9.830262e-01 4.064336e-02 8.781744e-01 8.908800e+02 8.713829e-01
1.187782e+02 9.229399e-01 4.137264e-02 8.176949e-01 8.908800e+02 8.666961e-01
1.187929e+02 8.315153e-01 4.234029e-02 7.409945e-01 8.908800e+02 8.646390e-01
1.188077e+02 7.168880e-01 4.350904e-02 6.303236e-01 8.908800e+02 8.671947e-01
1.188224e+02 5.318786e-01 4.486917e-02 4.664108e-01 7.987200e+02 8.747751e-01
1.188372e+02 4.963907e-01 4.658570e-02 4.593258e-01 7.987200e+02 8.862484e-01
1.188519e+02 5.797857e-01 4.851280e-02 5.449098e-01 6.144000e+02 8.995420e-01
1.188667e+02 6.054988e-01 5.093695e-02 5.704278e-01 6.144000e+02 9.124584e-01
1.188814e+02 5.949968e-01 5.409151e-02 5.713936e-01 5.529600e+02 9.233305e-01
1.188962e+02 6.614685e-01 5.759008e-02 6.473837e-01 5.529600e+02 9.312886e-01
1.189109e+02 6.884372e-01 6.269223e-02 6.544039e-01 3.686400e+02 9.361384e-01
1.189257e+02 4.924912e-01 6.949566e-02 4.326966e-01 3.686400e+02 9.380481e-01
1.189404e+02 1.675352e-01 8.025422e-02 1.307450e-01 2.764800e+02 9.372339e-01
1.189552e+02 2.889891e-02 9.603701e-02 1.596311e-02 2.764800e+02 9.338203e-01
1.189699e+02        nan 0.000000e+00 0.000000e+00 9.216000e+01 9.279263e-01
