# Object name: IRAS_07069-1045
# Instrument: FIFI-LS
# z: 0.00005500
# Ref. Wav.: 118.58100000
# Area aperture: 0.00000 degs
"wavelength","flux","eflux","uflux","exposure","atran"
1.182029e+02        nan 0.000000e+00 0.000000e+00 6.144000e+01 9.375452e-01
1.182177e+02        nan 0.000000e+00 0.000000e+00 6.144000e+01 9.350714e-01
1.182324e+02        nan 0.000000e+00 0.000000e+00 2.150400e+02 9.321246e-01
1.182472e+02 -4.212660e-01 1.183012e-01 -4.506312e-01 2.150400e+02 9.289193e-01
1.182619e+02 -5.338401e-01 1.018956e-01 -4.768211e-01 2.457600e+02 9.257978e-01
1.182767e+02 -1.172161e-01 9.199322e-02 -5.359577e-02 2.457600e+02 9.231461e-01
1.182914e+02 4.704222e-01 8.334041e-02 5.101244e-01 3.993600e+02 9.212635e-01
1.183062e+02 9.535536e-01 7.700874e-02 9.337379e-01 3.993600e+02 9.202379e-01
1.183209e+02 9.427177e-01 7.125825e-02 8.671220e-01 4.608000e+02 9.199022e-01
1.183357e+02 6.461229e-01 6.662558e-02 5.686599e-01 6.144000e+02 9.199080e-01
1.183504e+02 3.561490e-01 6.297213e-02 3.173104e-01 6.144000e+02 9.198944e-01
1.183652e+02 2.392937e-01 5.991439e-02 2.159744e-01 6.758400e+02 9.196669e-01
1.183799e+02 1.276914e-01 5.789612e-02 1.063268e-01 6.758400e+02 9.192898e-01
1.183947e+02 -2.236023e-02 5.621380e-02 -3.434391e-02 6.758400e+02 9.190409e-01
1.184094e+02 -8.082258e-02 5.502212e-02 -6.415368e-02 6.758400e+02 9.192566e-01
1.184242e+02 7.330618e-02 5.406828e-02 9.277384e-02 6.758400e+02 9.201525e-01
1.184389e+02 2.475089e-01 5.321845e-02 2.481135e-01 6.758400e+02 9.217150e-01
1.184537e+02 2.755963e-01 5.253576e-02 2.576736e-01 6.758400e+02 9.237070e-01
1.184684e+02 2.332568e-01 5.175372e-02 2.166340e-01 6.758400e+02 9.257663e-01
1.184832e+02 2.186570e-01 5.137000e-02 2.163683e-01 6.758400e+02 9.275193e-01
1.184979e+02 3.159086e-01 5.064855e-02 3.222305e-01 6.758400e+02 9.286326e-01
1.185127e+02 4.650821e-01 5.041137e-02 4.561479e-01 6.758400e+02 9.287766e-01
1.185274e+02 5.561550e-01 4.990792e-02 5.397132e-01 6.758400e+02 9.275254e-01
1.185422e+02 5.921792e-01 4.968753e-02 5.624362e-01 6.758400e+02 9.242792e-01
1.185569e+02 5.803046e-01 4.955881e-02 5.493901e-01 6.758400e+02 9.183210e-01
1.185717e+02 5.877982e-01 4.966857e-02 5.465320e-01 6.758400e+02 9.090588e-01
1.185864e+02 4.625227e-01 5.020466e-02 4.032141e-01 6.758400e+02 8.964269e-01
1.186012e+02 2.267193e-01 5.094356e-02 1.823151e-01 6.758400e+02 8.813002e-01
1.186159e+02 4.968901e-02 5.193824e-02 3.861944e-02 6.758400e+02 8.656484e-01
1.186307e+02 8.237193e-02 5.280713e-02 8.474054e-02 6.758400e+02 8.522187e-01
1.186454e+02 2.370085e-01 5.323265e-02 2.190262e-01 6.758400e+02 8.437356e-01
1.186602e+02 3.308523e-01 5.367918e-02 2.869713e-01 6.758400e+02 8.418671e-01
1.186749e+02 3.318661e-01 5.353323e-02 2.901441e-01 6.758400e+02 8.464715e-01
1.186897e+02 3.896109e-01 5.345472e-02 3.570625e-01 6.758400e+02 8.554930e-01
1.187044e+02 5.505062e-01 5.331861e-02 5.084036e-01 6.758400e+02 8.656301e-01
1.187192e+02 6.552437e-01 5.338754e-02 5.951110e-01 6.758400e+02 8.735366e-01
1.187339e+02 6.160094e-01 5.366674e-02 5.472594e-01 6.758400e+02 8.770138e-01
1.187487e+02 5.829037e-01 5.427278e-02 5.286142e-01 6.758400e+02 8.757619e-01
1.187634e+02 6.418714e-01 5.520266e-02 5.848372e-01 6.758400e+02 8.713829e-01
1.187782e+02 5.943773e-01 5.631977e-02 5.134244e-01 6.758400e+02 8.666961e-01
1.187929e+02 3.811743e-01 5.781224e-02 3.121835e-01 6.758400e+02 8.646390e-01
1.188077e+02 2.449122e-01 5.921922e-02 2.191285e-01 6.758400e+02 8.671947e-01
1.188224e+02 3.658584e-01 6.137796e-02 3.575430e-01 6.144000e+02 8.747751e-01
1.188372e+02 5.714395e-01 6.361020e-02 5.424481e-01 6.144000e+02 8.862484e-01
1.188519e+02 6.599504e-01 6.638926e-02 6.287350e-01 4.608000e+02 8.995420e-01
1.188667e+02 7.151832e-01 6.961995e-02 6.793140e-01 4.608000e+02 9.124584e-01
1.188814e+02 8.002519e-01 7.354143e-02 7.535011e-01 4.300800e+02 9.233305e-01
1.188962e+02 6.694151e-01 7.857530e-02 6.029008e-01 4.300800e+02 9.312886e-01
1.189109e+02 2.247996e-01 8.554406e-02 1.268225e-01 2.764800e+02 9.361384e-01
1.189257e+02 -4.469721e-01 9.548342e-02 -5.071013e-01 2.764800e+02 9.380481e-01
1.189404e+02 -8.447992e-01 1.110257e-01 -7.985200e-01 2.150400e+02 9.372339e-01
1.189552e+02        nan 0.000000e+00 0.000000e+00 2.150400e+02 9.338203e-01
1.189699e+02        nan 0.000000e+00 0.000000e+00 6.144000e+01 9.279263e-01
